# time(ns) distance (A) angle (deg)
4.390 5.730 89.586
4.460 4.860 85.432
4.530 5.040 31.208
4.540 5.310 67.330
4.550 4.030 87.053
4.560 4.860 80.206
4.880 4.220 75.751
4.890 4.070 78.403
4.950 5.830 88.817
5.090 5.800 82.204
5.110 5.760 73.176
5.470 5.700 87.248
5.540 5.300 81.612
5.550 4.600 51.719
5.560 4.660 69.976
5.570 5.160 40.253
5.580 4.820 40.343
5.590 4.800 55.244
5.600 4.710 50.628
5.610 4.370 36.442
5.620 5.330 64.538
5.630 3.960 54.186
5.640 5.040 69.061
5.650 5.170 60.204
5.660 5.390 63.834
5.670 5.090 33.706
5.680 4.690 52.988
5.690 5.170 46.193
5.700 4.120 22.095
5.710 4.450 52.938
5.720 5.310 87.608
5.730 4.560 46.107
5.740 4.540 28.836
5.750 4.350 27.769
5.760 4.020 23.416
5.770 4.620 58.990
5.780 5.030 38.327
5.800 5.920 39.635
5.810 5.570 15.261
5.820 5.410 22.120
5.830 5.510 17.570
5.870 5.690 36.584
5.890 5.810 6.895
5.920 5.560 42.866
5.970 5.690 73.228
5.980 5.440 17.556
6.000 6.000 9.015
6.010 5.690 27.893
6.070 5.450 81.999
6.080 5.970 84.905
6.130 5.040 80.628
6.260 5.560 87.507
6.740 5.690 88.484
6.980 5.950 87.727
7.090 4.980 89.861
7.160 5.430 83.510
7.350 5.620 86.446
7.530 5.580 86.569
7.730 5.540 83.669
8.250 5.810 61.163
8.900 5.810 85.148
10.000 5.770 21.986
19.190 5.800 80.463
20.710 6.000 63.860
20.730 5.750 41.427
20.970 6.000 85.966
21.190 5.840 86.985
21.220 5.950 89.888
21.310 5.580 84.100
21.470 5.990 83.908
21.590 5.950 71.563
21.650 5.310 85.064
21.700 5.740 84.485
21.710 5.280 88.626
21.750 5.950 67.280
21.760 4.620 85.790
21.770 5.640 72.976
21.820 5.690 72.985
21.850 5.860 57.946
21.860 5.950 48.936
21.900 5.760 77.350
21.950 4.740 82.535
21.960 5.150 87.393
22.100 5.540 58.068
22.120 5.930 65.278
22.130 5.680 78.748
22.200 5.070 79.864
22.240 5.210 86.624
22.250 4.870 81.548
22.280 4.830 85.184
22.290 5.360 71.913
22.940 5.240 62.369
23.240 5.730 70.809
24.180 5.160 61.211
24.210 4.950 89.591
24.310 5.280 70.214
24.320 5.430 86.622
24.330 5.140 89.749
24.340 4.680 86.214
24.500 5.160 63.536
24.530 4.370 89.062
24.540 4.700 52.106
24.560 5.780 57.223
24.570 5.020 64.989
24.690 4.780 15.495
24.700 5.090 84.955
24.710 4.890 78.379
24.740 4.960 53.383
24.790 4.930 82.794
24.830 4.770 89.327
24.860 4.840 51.777
24.870 5.770 70.642
24.880 5.470 82.454
24.890 5.560 77.307
24.900 5.670 21.512
24.940 5.230 86.966
24.960 5.940 51.497
24.980 5.600 30.611
24.990 5.880 41.562
25.000 5.240 64.356
25.050 5.020 84.307
25.190 5.400 53.730
25.200 4.170 81.785
25.210 4.700 52.860
25.290 5.680 67.886
25.300 5.180 33.348
25.310 5.340 84.494
25.330 5.080 62.765
25.340 5.680 79.641
25.350 5.450 77.274
25.360 5.310 24.712
25.380 5.500 56.260
25.390 5.650 56.898
25.400 4.900 83.640
25.410 5.050 58.358
25.420 5.200 68.697
25.430 5.470 21.274
25.440 5.010 79.196
25.450 5.620 28.303
25.490 4.830 84.616
25.540 4.980 72.153
25.590 5.610 66.386
25.620 5.320 42.584
25.630 5.570 46.075
25.660 5.570 56.224
25.680 5.410 80.821
25.710 5.120 65.387
25.720 5.190 83.183
25.730 5.860 41.850
25.740 5.460 37.712
25.790 5.270 57.897
25.800 5.460 16.925
25.810 5.400 18.188
25.840 6.000 13.963
25.850 4.910 10.269
25.860 5.730 42.777
25.880 5.500 18.115
26.010 5.220 11.562
26.020 5.820 20.991
26.030 5.930 10.700
26.050 5.710 16.139
26.060 4.820 76.703
26.070 5.330 57.057
26.080 4.860 79.158
26.090 5.150 33.638
26.120 5.790 59.369
26.140 5.960 34.167
26.160 5.430 77.212
26.180 5.330 65.066
26.200 5.540 49.667
26.210 5.330 74.030
26.250 5.400 65.672
26.260 5.850 31.966
26.280 5.990 59.336
26.290 5.970 48.119
26.300 5.520 59.578
26.310 5.880 55.552
26.320 5.630 46.066
26.330 4.610 68.771
26.340 4.870 63.951
26.350 4.990 31.789
26.360 5.650 40.610
26.370 5.700 42.270
26.380 4.600 68.221
26.390 4.940 74.558
26.410 5.900 42.421
26.460 5.940 42.246
26.530 5.780 55.106
26.540 5.980 23.357
26.550 5.600 22.273
26.570 5.880 20.672
26.580 5.880 31.821
26.610 5.470 42.175
26.620 5.800 26.045
26.630 5.890 51.474
26.650 5.960 35.975
26.680 5.890 51.716
26.720 5.510 36.793
26.730 5.540 64.037
26.740 4.660 83.193
26.770 5.990 64.742
26.800 5.780 68.256
26.810 5.850 72.093
26.820 5.320 89.501
26.840 5.270 43.565
26.850 4.710 79.261
26.860 4.970 54.050
26.870 4.620 42.102
26.880 5.920 16.596
26.890 4.660 75.978
26.900 5.150 28.726
26.910 5.090 39.919
26.930 5.400 52.700
26.940 5.850 50.243
26.950 5.230 47.418
26.960 5.520 42.020
26.970 5.440 46.904
26.980 5.560 19.649
26.990 5.260 34.195
27.000 5.670 24.219
27.010 5.250 61.703
27.020 5.420 55.365
27.030 5.130 49.334
27.040 5.290 47.821
27.050 5.270 43.742
27.060 5.450 27.873
27.100 5.320 59.764
27.120 5.700 26.799
27.130 5.890 43.049
27.140 4.700 70.124
27.150 5.890 39.959
27.160 5.860 19.038
27.170 5.760 31.710
27.180 5.640 45.309
27.190 5.490 79.809
27.240 5.800 58.995
27.250 5.040 81.991
27.260 5.870 55.355
27.270 5.960 24.421
27.290 5.800 17.580
27.320 5.690 75.418
27.350 5.830 57.133
27.360 5.150 76.825
27.480 5.820 31.936
27.520 5.690 57.322
28.330 5.890 78.620
28.550 5.190 78.947
28.560 5.330 79.842
28.570 5.570 74.152
28.580 5.010 60.669
28.610 5.850 71.912
28.910 5.780 73.157
28.920 5.810 75.503
29.270 5.560 72.856
29.290 5.670 73.341
29.300 5.830 71.306
29.890 5.730 74.241
29.920 5.730 74.209
29.930 5.870 89.911
29.940 5.630 51.287
29.950 5.390 71.579
29.960 5.610 89.091
30.040 5.910 71.180
30.170 5.800 80.219
30.210 5.870 72.643
30.310 5.910 74.160
30.370 5.940 69.866
30.910 5.460 56.165
30.970 5.720 85.944
30.980 5.260 86.578
30.990 4.900 87.433
31.000 4.570 84.106
31.020 4.730 78.431
31.070 5.250 77.059
31.080 5.660 55.184
31.090 5.940 53.960
31.100 4.510 64.236
31.120 5.370 49.111
31.130 4.410 69.064
31.140 4.840 42.024
31.150 5.950 54.677
31.160 5.390 62.042
31.170 4.910 38.678
31.180 5.510 78.552
31.200 4.960 75.454
31.210 4.920 85.876
31.230 5.130 52.897
31.270 5.650 77.594
31.450 5.660 44.614
31.560 5.750 33.562
31.600 5.470 32.575
31.610 4.790 53.060
31.620 5.830 47.947
31.730 5.850 47.504
31.740 5.610 26.850
31.820 5.130 27.323
31.830 5.920 16.281
31.850 5.350 39.687
31.860 5.520 31.703
31.880 5.730 44.463
31.910 5.140 68.125
31.920 5.060 71.004
31.930 5.190 34.483
31.940 5.550 33.558
31.950 5.970 40.584
32.020 5.640 11.283
32.040 5.490 31.379
32.060 5.530 28.620
32.070 5.880 29.565
32.080 5.990 26.281
34.250 5.440 64.081
34.790 4.600 76.134
34.810 5.770 79.316
34.820 5.290 72.508
38.480 5.820 89.973
38.750 5.880 77.314
38.790 5.790 70.772
38.850 5.490 32.725
38.880 5.460 79.274
38.910 5.800 80.298
38.920 5.750 71.487
39.340 5.610 86.297
39.470 5.870 85.199
39.720 5.650 78.211
39.740 5.890 76.751
39.750 5.480 79.271
39.760 5.830 62.794
39.770 5.000 81.414
39.780 4.970 89.473
39.790 5.660 60.475
39.800 5.300 76.663
39.810 5.660 81.470
39.890 5.670 86.040
39.900 5.740 72.431
40.040 5.140 63.286
40.060 5.530 61.945
40.070 5.310 58.328
40.080 5.780 76.421
40.100 5.500 75.192
40.110 5.050 80.476
40.240 5.290 75.528
40.460 5.730 76.655
40.820 5.690 86.800
41.000 4.970 71.567
41.100 5.070 69.510
41.110 5.320 76.264
41.120 5.150 70.268
41.130 5.890 80.491
41.170 5.570 69.679
41.180 5.050 78.854
41.190 4.850 76.393
41.200 4.990 62.857
41.210 5.090 59.225
41.230 5.630 83.836
41.250 4.780 78.205
41.270 5.100 83.012
41.300 5.220 76.243
41.310 5.480 89.493
41.330 5.440 52.177
41.340 5.380 82.792
41.350 5.790 80.743
41.360 5.390 72.984
41.370 5.710 77.930
41.380 5.810 58.323
41.400 5.440 89.072
41.470 5.510 40.386
41.480 5.080 84.898
41.490 4.930 62.952
41.510 5.630 58.652
41.540 5.220 79.397
41.550 5.860 68.829
41.560 5.150 80.324
41.700 5.930 80.291
41.820 4.810 80.112
41.840 5.690 87.971
41.860 5.150 71.749
41.870 5.090 60.406
41.890 5.810 87.058
41.900 5.150 88.028
41.910 5.100 71.523
41.920 5.260 81.958
41.940 5.170 86.537
41.990 5.670 66.427
42.020 5.700 84.830
42.030 5.030 67.853
42.060 5.270 33.713
42.070 5.290 51.720
42.080 6.000 62.311
42.130 5.630 82.859
42.180 4.430 64.562
42.190 5.430 34.646
42.630 5.740 59.488
42.700 5.920 59.876
42.710 5.030 22.536
42.730 5.710 21.146
42.750 5.090 52.652
42.760 5.220 31.636
42.880 5.820 80.697
42.900 5.510 86.363
42.930 5.240 86.584
42.940 5.710 63.470
42.950 5.740 81.171
43.110 5.620 76.991
43.130 5.430 81.585
43.150 5.670 86.948
43.160 4.680 86.640
43.170 5.910 62.737
43.190 5.370 60.985
43.200 5.890 75.321
43.210 5.800 72.582
43.220 5.810 60.525
43.240 5.530 56.539
43.250 4.980 72.125
45.800 5.950 57.528
45.810 5.200 41.830
46.120 5.920 70.446
46.130 5.290 67.349
46.140 5.860 66.682
46.240 5.400 60.379
46.250 5.650 55.445
46.440 5.660 42.606
46.470 5.670 52.982
46.480 5.960 62.449
46.500 5.620 71.583
46.520 5.970 40.620
46.530 5.150 44.184
46.540 5.580 76.498
46.580 5.500 82.195
46.630 5.910 58.399
46.680 5.860 89.169
46.690 5.560 70.754
46.740 5.570 79.565
48.810 5.830 33.732
48.860 5.490 75.678
48.910 5.860 64.970
48.980 5.970 84.234
50.930 5.810 83.193
54.430 5.940 76.625
54.500 5.960 67.752
54.510 5.770 76.956
54.520 5.410 82.438
54.530 5.960 85.525
54.540 5.790 72.565
54.550 6.000 68.803
54.560 5.270 89.710
54.570 5.460 83.170
54.660 5.930 59.707
54.700 5.730 77.765
54.710 5.840 88.723
54.750 5.880 30.335
54.760 5.150 31.729
54.790 5.870 83.808
54.830 5.980 70.537
54.890 5.980 76.097
54.900 5.960 79.040
54.910 5.740 80.856
55.000 5.960 71.691
55.030 5.510 81.565
55.280 4.970 44.593
55.290 5.040 32.342
55.300 5.160 38.688
55.310 4.510 47.846
55.320 4.530 40.619
55.330 5.090 36.905
55.340 4.780 83.389
55.400 5.400 76.470
55.410 5.390 89.400
55.660 5.850 82.842
55.670 5.560 56.634
55.680 5.760 75.091
55.690 5.940 84.702
55.700 5.890 61.545
55.710 5.810 73.023
55.720 5.800 80.725
55.740 5.950 62.957
55.800 5.740 78.239
55.810 5.820 67.315
55.820 5.700 75.065
55.840 5.860 81.590
56.070 5.890 73.714
56.220 5.960 51.963
56.240 5.620 59.211
56.380 5.750 68.434
56.390 5.050 78.396
56.400 5.570 70.529
63.970 5.000 64.288
64.470 5.380 87.715
64.900 5.270 86.501
64.960 5.530 77.375
66.290 5.440 86.650
67.640 5.590 67.564
67.650 5.300 72.489
67.660 5.450 77.240
68.720 5.980 76.528
68.730 5.390 82.297
68.930 5.980 85.542
69.920 5.750 77.735
70.390 5.690 9.042
70.460 5.720 10.833
70.910 5.870 72.761
70.920 5.530 72.050
70.990 5.980 74.329
71.010 5.820 76.081
71.020 5.900 82.274
71.030 5.990 76.768
71.140 5.790 85.041
71.480 5.710 67.489
71.560 5.930 76.908
71.580 5.740 86.742
71.600 5.700 76.165
71.610 5.820 76.635
71.620 4.960 84.886
71.650 5.390 73.086
71.660 5.800 75.070
71.690 5.920 81.258
71.700 5.990 81.795
71.740 4.630 84.547
71.760 5.420 77.097
72.550 5.470 87.831
72.660 5.410 87.040
72.790 5.610 83.004
72.860 5.660 83.619
73.010 5.980 78.131
73.030 5.730 81.387
73.040 5.530 80.827
73.050 5.390 82.613
73.060 5.650 73.689
73.070 5.560 83.711
73.340 5.910 74.840
73.420 5.740 86.255
73.470 5.910 79.017
73.490 5.710 85.195
73.500 5.750 88.342
73.610 5.820 89.765
74.160 5.530 70.498
74.170 5.740 79.857
74.180 5.370 75.606
74.190 5.350 83.991
74.200 5.970 78.476
74.550 5.980 83.229
74.570 5.800 75.561
74.620 5.040 79.404
74.630 4.990 74.542
74.640 5.180 69.147
74.650 4.890 70.725
74.660 5.750 78.717
74.670 5.920 79.862
74.680 5.550 81.314
74.690 5.540 89.081
74.700 5.470 69.148
74.710 5.160 70.327
74.730 5.240 88.517
74.740 5.050 81.752
74.750 5.320 82.633
74.760 5.110 89.282
74.780 5.400 79.415
74.790 5.740 83.704
74.800 5.370 86.194
74.810 4.940 75.787
74.820 5.620 77.394
74.830 5.790 69.269
74.840 5.650 77.982
74.850 5.630 81.736
74.880 5.700 88.530
74.920 5.560 73.242
74.930 5.950 82.019
74.950 5.700 76.428
74.960 5.340 77.785
74.970 5.100 83.731
74.980 5.430 80.063
74.990 5.140 75.401
75.000 5.890 64.251
75.010 5.790 71.341
75.020 5.790 83.969
75.070 5.880 72.287
75.080 5.350 75.964
75.090 5.940 73.102
75.100 5.450 80.534
75.130 5.490 59.298
75.140 5.170 84.361
75.160 5.220 87.538
75.170 5.150 73.884
75.180 5.480 69.702
75.190 5.300 74.481
75.200 5.140 65.785
75.210 5.800 72.509
75.310 5.910 84.089
75.320 5.700 78.481
75.470 5.710 77.887
75.480 5.700 71.511
75.490 5.440 80.702
75.500 5.660 72.392
75.510 5.000 73.760
75.520 5.290 81.436
75.530 5.300 82.004
75.540 5.680 62.921
75.560 5.680 77.412
75.680 5.740 71.578
75.690 5.490 88.687
75.700 5.400 56.769
75.710 5.530 57.987
75.830 5.990 70.411
75.840 5.950 70.618
75.850 5.430 72.080
76.060 5.400 85.976
76.080 5.990 72.583
76.120 5.810 81.582
76.130 5.980 60.012
76.140 5.660 83.930
76.150 5.410 88.561
76.160 5.480 73.131
76.180 5.710 72.873
76.190 5.920 86.556
76.210 5.270 85.695
76.220 5.870 76.860
76.240 5.480 77.064
76.260 5.460 79.025
76.270 5.850 58.762
76.350 5.510 72.990
76.360 5.460 72.882
76.370 5.540 87.253
76.380 5.950 71.727
76.390 5.820 74.818
76.400 5.700 89.971
76.410 5.970 85.318
76.510 5.950 83.884
76.520 5.400 71.082
76.530 5.920 73.633
76.610 5.710 79.099
76.640 5.770 85.078
76.650 4.620 75.320
76.660 4.910 72.363
76.690 4.580 57.889
76.720 5.610 86.963
76.790 5.900 79.671
76.900 5.920 85.972
76.930 5.540 84.612
76.940 5.720 72.440
76.960 5.550 79.002
77.000 5.410 88.948
77.160 5.810 82.482
77.300 5.970 72.030
77.420 5.330 84.078
77.440 5.790 67.864
77.460 5.020 88.477
77.480 5.430 83.501
77.560 4.910 83.393
77.590 4.540 79.675
77.600 4.470 86.985
77.630 4.750 80.904
77.860 5.810 85.462
77.870 5.970 81.459
77.970 5.330 70.435
78.050 5.980 87.176
78.220 5.100 89.450
78.320 5.920 63.926
78.580 5.700 82.572
78.970 5.840 72.864
79.030 5.370 45.073
79.040 5.880 76.363
79.050 5.240 37.872
79.060 5.750 86.849
79.070 5.640 85.335
79.160 5.970 48.148
79.620 5.770 67.237
79.770 5.800 83.626
79.790 5.880 71.105
79.870 5.900 83.266
79.880 5.780 72.398
79.950 5.920 81.908
80.070 5.830 48.253
80.110 5.310 53.117
80.120 5.430 77.589
80.130 4.710 64.489
80.140 4.650 65.890
80.150 4.790 65.827
80.160 5.050 83.636
80.170 5.200 56.385
80.210 5.910 70.484
80.330 5.330 84.764
80.360 5.790 78.917
80.410 5.900 78.935
80.520 5.380 57.362
80.760 6.000 33.479
80.960 5.170 83.248
80.980 5.810 74.011
81.010 5.880 13.076
81.020 5.630 41.990
81.030 5.090 86.486
81.130 5.630 72.325
81.140 5.800 58.225
81.160 5.640 40.181
81.250 5.890 48.587
81.300 5.390 45.070
81.310 5.620 69.614
81.320 5.910 77.577
81.330 5.060 53.853
81.370 5.810 45.354
81.490 5.950 58.141
81.560 5.880 55.471
81.570 5.630 53.844
81.600 5.320 66.416
81.610 5.450 39.410
81.620 5.850 22.579
81.640 5.770 36.246
81.650 5.540 52.728
81.690 5.350 37.514
81.700 5.510 50.638
81.710 5.410 87.008
81.720 5.820 50.236
81.730 5.740 59.835
81.750 5.730 82.333
81.800 5.810 38.164
81.820 5.580 35.645
81.830 5.880 52.345
81.850 5.490 29.532
83.030 6.000 85.767
83.080 5.760 82.840
83.100 5.870 85.610
83.530 5.950 77.722
83.560 6.000 59.464
83.900 5.840 77.486
84.290 5.540 76.833
84.300 5.960 71.883
84.330 5.650 75.742
84.340 5.630 75.012
84.350 6.000 65.915
84.360 5.970 84.121
84.410 5.830 82.404
84.430 5.860 77.620
84.440 5.170 83.698
84.450 5.680 78.988
84.460 4.660 84.033
84.480 5.480 79.787
84.490 5.350 72.643
84.500 4.850 83.926
84.510 6.000 71.551
84.520 5.750 65.275
84.540 5.750 87.779
84.600 5.860 78.443
85.220 5.820 83.849
85.240 5.300 65.759
85.280 5.260 68.237
85.310 5.730 77.593
85.350 5.900 51.239
89.590 5.840 64.752
89.650 5.610 48.055
89.660 4.820 68.654
89.670 5.290 65.263
89.680 5.460 47.326
89.690 5.850 57.065
89.700 6.000 46.120
89.710 5.930 68.074
89.720 5.410 83.093
89.730 5.750 84.482
89.840 6.000 75.608
90.210 5.430 87.288
90.220 5.630 79.734
90.310 5.750 61.196
90.520 5.440 71.589
90.530 5.950 68.105
90.600 5.200 72.155
90.620 5.470 67.689
90.630 5.980 29.070
90.700 5.960 86.672
90.710 5.880 84.868
90.740 5.950 79.270
90.820 5.620 54.247
90.870 5.820 68.813
90.880 4.830 82.302
90.900 5.870 73.834
90.910 5.770 88.837
90.960 5.660 74.766
91.050 5.390 79.655
91.060 5.640 82.556
91.070 5.810 81.943
91.130 5.800 52.334
91.160 5.720 80.638
91.210 5.810 63.821
91.240 5.680 82.601
91.250 5.600 85.494
91.260 5.440 74.953
91.280 5.650 75.730
91.290 5.360 76.357
91.300 5.940 64.175
91.320 5.970 67.413
91.330 5.680 69.138
91.390 5.290 60.927
91.410 5.360 78.006
91.430 5.710 63.364
91.490 5.720 88.532
91.550 5.950 88.254
91.710 5.980 81.266
91.930 5.760 87.014
91.960 5.520 88.620
91.970 5.280 83.705
91.990 5.690 89.552
92.010 5.740 88.273
92.100 5.630 75.486
92.120 5.230 37.516
92.190 5.910 6.955
92.200 6.000 25.959
92.210 5.680 18.932
92.220 5.950 36.435
92.260 5.820 32.442
92.310 5.640 37.849
92.320 5.160 36.010
92.330 4.800 36.736
92.340 5.500 72.024
92.350 5.620 41.946
92.360 5.260 29.157
92.370 5.770 51.364
92.390 6.000 24.326
92.950 5.680 84.468
92.990 5.740 87.233
93.350 5.540 88.889
93.370 5.140 80.076
93.380 5.730 74.723
93.680 4.270 65.712
93.690 4.390 63.460
93.700 4.580 78.541
93.710 5.020 82.215
93.720 4.690 82.837
93.730 4.190 68.423
93.810 5.420 75.599
93.900 4.940 70.936
93.990 5.840 83.222
94.080 5.430 88.037
94.280 5.750 80.565
94.360 5.720 72.389
94.380 5.800 73.645
94.390 5.740 65.267
94.410 5.750 68.884
94.430 5.370 74.837
94.470 5.680 89.557
95.790 4.680 76.647
95.820 5.400 77.829
95.860 4.570 76.691
95.870 4.970 73.583
95.880 5.080 72.774
95.890 5.490 76.733
95.900 4.820 56.944
95.910 5.000 60.729
95.930 4.800 85.316
95.940 4.670 74.269
95.950 4.640 66.386
95.960 4.770 70.026
95.970 4.830 56.298
96.000 5.060 41.759
96.040 5.420 32.103
96.050 4.880 46.505
96.060 4.590 18.806
96.070 5.090 40.601
96.080 5.340 68.580
96.090 4.990 18.476
96.100 4.550 53.024
96.110 4.220 71.840
96.120 4.220 33.320
96.130 4.550 33.884
96.140 4.580 40.327
96.150 5.120 46.023
96.160 4.580 84.572
96.170 4.280 62.946
96.180 4.630 60.249
96.200 4.060 63.168
96.210 4.460 76.853
96.220 5.360 38.373
96.230 4.970 54.703
96.240 5.790 26.601
96.250 5.880 57.936
96.260 4.720 62.841
96.270 4.300 69.815
96.310 4.470 70.480
96.320 5.090 72.858
96.330 4.880 47.383
96.340 4.640 40.436
96.350 4.090 56.727
96.370 4.850 53.640
96.380 4.890 77.695
96.410 5.120 88.000
96.450 4.860 88.494
96.460 5.520 88.113
96.470 5.180 89.528
96.480 4.890 66.954
96.490 4.850 73.347
96.510 5.680 74.577
96.520 5.600 88.112
96.530 5.900 78.506
96.540 5.860 83.846
96.640 5.680 86.220
96.860 5.580 86.234
96.900 5.900 47.609
96.930 5.610 88.448
98.180 5.820 79.692
98.210 5.650 61.787
98.250 5.820 87.452
98.270 5.920 89.389
98.290 5.830 86.647
98.490 5.460 82.854
98.700 5.840 67.834
98.710 5.950 89.773
98.750 5.910 77.243
98.910 5.880 84.997
98.990 5.450 86.862
99.000 5.720 88.034
99.160 5.720 87.233
99.540 5.900 76.762
99.550 5.650 88.915
99.560 5.950 57.956
99.570 5.260 78.414
99.590 5.680 62.071
99.610 5.930 72.344
99.630 5.850 54.884
99.640 5.520 78.339
99.660 5.530 85.850
99.670 5.610 77.969
99.680 5.930 81.008
99.750 5.990 24.060
99.770 5.650 31.713
99.780 5.420 32.876
99.950 5.990 17.437
99.960 5.920 30.897
100.130 5.870 27.592
100.140 5.960 36.195
100.170 5.590 31.064
100.190 5.920 20.629
100.250 5.900 22.518
100.720 5.750 22.713
100.780 5.910 19.245
101.130 5.950 68.881
101.150 5.470 42.281
101.160 5.220 59.564
101.200 5.610 72.459
101.230 5.710 82.749
101.250 5.300 59.113
101.260 5.280 72.820
101.330 5.980 84.797
101.370 5.470 89.986
101.380 5.740 84.051
101.410 5.680 85.247
101.460 5.820 79.402
101.510 5.460 80.729
101.550 5.930 78.184
101.800 5.940 70.157
101.890 5.890 60.504
101.920 5.550 50.061
102.010 5.630 50.790
102.060 5.590 85.701
102.110 5.970 24.285
102.140 5.940 76.975
106.410 5.710 53.016
106.420 5.790 27.727
106.430 5.300 1.722
106.440 4.800 41.644
106.450 5.350 53.417
106.460 4.130 47.335
106.470 5.760 42.326
106.480 5.910 37.590
106.490 5.910 82.114
106.520 5.910 67.970
106.560 5.780 37.825
106.660 5.220 21.741
106.670 5.740 27.583
106.680 5.930 63.464
106.700 5.820 67.966
106.810 5.670 65.487
107.870 5.490 84.790
109.090 5.780 76.717
109.100 5.760 89.520
109.110 5.810 66.599
109.130 5.870 77.070
109.950 5.550 60.472
109.990 5.810 17.617
110.010 5.330 89.401
116.410 5.730 26.488
116.420 5.700 23.004
116.560 5.840 8.577
117.060 5.780 12.356
117.070 5.810 14.796
117.090 5.900 13.239
117.860 5.740 79.269
117.920 5.870 84.306
118.090 5.940 81.358
118.140 6.000 60.951
118.150 5.420 61.628
118.170 5.760 67.736
118.180 5.950 69.446
118.190 5.170 83.163
118.220 5.970 79.187
118.230 5.190 77.394
118.240 4.700 83.032
118.280 5.550 68.795
118.290 5.460 52.305
118.320 5.360 81.366
118.340 4.770 74.886
118.360 5.740 75.242
118.370 5.180 81.976
