# time(ns) distance (A) angle (deg)
2.290 4.860 15.181
2.310 4.450 16.972
2.320 4.200 26.016
2.330 4.200 15.206
2.340 3.820 23.655
2.350 3.600 16.737
2.360 4.610 31.065
2.370 4.070 33.874
2.470 4.540 40.933
2.490 3.810 12.991
2.500 4.260 35.933
2.510 4.130 10.303
2.520 4.190 25.788
2.530 4.180 7.069
2.550 3.710 16.143
2.560 4.110 28.146
2.570 4.780 31.810
2.600 4.330 44.348
2.610 4.970 29.962
2.770 4.010 25.319
2.780 4.690 13.743
2.790 4.360 41.096
2.830 4.770 23.700
2.860 4.330 25.781
2.870 4.570 21.015
2.880 4.260 14.162
2.900 3.980 38.830
2.910 4.240 29.307
2.920 4.050 31.046
2.930 4.030 27.092
2.940 4.790 28.165
2.950 4.850 23.421
2.960 4.530 0.529
2.970 4.620 12.966
2.980 4.980 41.872
2.990 4.440 10.298
3.000 4.610 22.607
3.010 4.200 12.752
3.020 4.450 17.743
3.040 4.230 3.852
3.060 4.900 20.091
3.070 4.880 26.023
3.080 4.590 18.074
3.090 4.870 27.426
3.100 4.170 28.344
3.180 4.410 43.887
3.190 4.320 32.766
3.200 4.320 36.673
3.210 4.660 37.241
3.240 4.330 3.964
3.250 4.060 11.479
3.260 4.330 27.047
3.320 4.880 36.744
3.480 4.960 35.922
3.880 4.490 26.791
24.170 4.700 32.398
24.240 4.010 43.080
24.250 4.970 19.437
24.260 4.270 35.922
24.270 4.520 13.828
24.280 4.380 34.857
24.290 4.670 35.354
24.300 4.570 25.815
24.320 4.250 35.029
24.330 4.940 15.236
24.340 4.360 25.793
24.360 4.790 29.491
24.370 4.490 25.042
24.380 4.220 24.785
24.390 4.340 35.925
24.400 4.410 28.869
24.410 4.250 21.779
24.420 4.550 10.147
24.440 4.720 11.839
24.500 4.670 37.256
24.530 4.510 29.442
24.540 4.780 36.157
24.550 4.560 43.541
24.570 4.780 26.058
24.580 4.470 38.266
24.590 4.510 41.929
24.620 4.150 28.054
24.630 4.200 29.336
24.640 4.070 15.835
24.650 4.040 34.566
24.710 4.360 29.951
24.730 4.640 31.006
24.740 4.770 41.269
24.800 4.940 35.270
24.820 4.280 41.772
24.840 4.690 11.615
24.870 4.760 44.043
24.880 4.670 25.553
26.480 3.690 15.205
26.490 4.320 21.003
26.500 4.430 39.467
26.510 4.440 18.313
26.530 4.570 30.531
26.550 3.980 15.866
26.560 4.890 40.902
26.570 4.830 4.222
26.580 4.690 29.382
26.590 4.620 15.796
26.600 4.280 25.873
26.630 4.460 24.189
26.640 4.170 24.450
26.650 3.910 9.301
26.660 4.020 28.594
26.680 4.510 20.660
26.690 3.730 8.059
26.710 4.160 35.238
26.720 3.960 28.164
26.730 4.350 38.932
26.740 4.320 34.168
26.750 4.620 34.555
26.760 4.530 25.284
26.770 4.460 26.982
26.780 4.270 39.060
26.790 4.520 13.016
26.800 4.260 41.516
26.810 4.560 29.887
26.820 4.410 19.072
26.830 4.580 34.182
27.590 4.490 35.652
27.690 4.400 25.042
27.730 4.560 40.041
27.750 4.560 19.791
27.760 4.220 33.988
27.770 4.250 33.696
27.780 4.780 29.696
27.790 4.650 33.801
27.800 4.330 32.789
27.930 4.410 23.416
27.940 4.030 44.453
27.970 4.530 26.100
28.090 4.340 27.294
28.100 4.310 35.513
28.110 4.450 27.158
28.120 4.280 27.247
28.130 3.860 8.840
28.140 4.540 30.546
28.150 4.010 25.759
28.160 3.810 20.142
28.170 4.150 29.999
28.180 4.170 22.197
28.190 4.060 32.455
28.220 3.870 28.639
28.230 4.710 38.477
28.240 4.520 10.164
28.270 4.660 36.090
28.300 4.850 19.286
28.320 4.420 37.410
28.330 4.710 16.772
28.360 4.970 24.325
28.370 4.950 31.361
28.380 4.140 20.863
28.390 4.370 34.087
28.420 4.610 16.103
28.430 4.390 18.809
28.450 4.140 25.893
28.460 3.750 3.209
28.470 4.350 22.710
28.480 4.580 5.905
28.520 4.910 33.886
28.530 4.840 15.525
28.540 4.850 18.906
28.570 4.700 39.574
28.590 4.530 36.013
28.600 4.830 23.880
28.640 4.540 11.708
28.700 4.690 20.727
28.710 4.360 0.801
28.790 4.690 32.529
28.800 4.920 9.181
28.810 4.480 22.036
28.830 4.640 32.533
28.840 4.870 16.961
28.910 4.470 23.265
28.920 4.490 25.619
28.940 4.770 16.341
28.950 4.700 38.864
28.980 4.810 5.098
28.990 4.170 23.159
29.030 4.600 19.170
29.060 4.900 9.615
29.070 4.640 26.390
29.090 4.810 32.799
29.140 4.470 38.853
29.200 4.840 8.499
29.210 4.710 9.508
29.220 4.840 16.912
29.240 4.960 17.544
29.250 4.820 11.915
29.260 4.910 35.156
29.280 4.910 25.601
29.290 4.680 22.841
29.320 4.920 9.353
29.330 4.530 16.953
29.340 4.080 40.744
29.350 4.040 41.986
29.370 4.650 25.710
29.380 4.170 30.586
29.390 4.000 23.034
29.400 4.520 36.983
29.410 4.450 25.487
29.430 4.260 31.851
29.440 4.470 18.933
29.450 4.410 29.007
29.460 4.370 34.696
29.470 4.410 34.149
29.490 4.310 44.251
29.500 4.610 32.874
29.510 4.620 44.745
29.530 4.730 41.050
29.560 4.180 35.578
29.570 4.780 8.698
29.580 4.260 18.970
29.590 4.640 31.918
29.600 4.720 20.229
29.620 4.320 18.336
29.630 4.710 22.480
29.640 4.510 34.577
29.660 4.460 19.166
29.680 4.390 13.298
29.700 4.800 2.197
29.720 4.950 7.867
29.730 4.630 26.914
29.740 4.550 14.365
29.760 4.290 37.460
29.770 4.530 43.048
29.790 4.530 30.979
29.800 4.490 25.201
33.580 4.520 41.020
33.620 4.470 40.790
33.660 4.040 36.247
34.040 4.570 43.470
34.050 4.310 36.219
34.060 4.770 17.417
34.070 4.240 34.224
34.080 4.890 15.614
34.090 4.220 40.157
37.100 4.580 37.678
37.560 4.030 34.589
37.580 4.000 36.895
37.650 4.350 10.675
37.720 4.640 38.764
37.740 4.600 36.993
37.870 4.380 29.759
37.880 4.160 38.294
37.900 4.700 37.794
37.970 4.530 42.267
38.010 4.670 39.398
38.020 4.850 39.931
38.030 4.670 30.198
38.080 4.380 39.586
38.110 4.490 31.980
38.120 4.320 40.577
38.240 4.100 38.379
38.260 4.540 43.649
38.270 4.590 40.238
38.360 4.700 42.599
38.380 4.190 38.493
38.390 4.610 34.021
38.400 4.250 32.057
38.410 4.710 41.658
38.820 4.330 37.527
39.180 4.130 40.103
39.200 4.310 44.704
39.260 4.680 42.493
39.270 4.390 24.886
39.280 3.910 7.925
39.290 4.490 25.170
39.300 4.540 37.172
39.310 4.240 21.688
39.320 4.150 20.681
39.330 4.460 18.477
39.340 4.910 43.789
39.350 4.220 24.472
39.360 4.310 16.138
39.370 4.110 20.116
39.380 4.820 16.615
39.390 4.660 12.516
39.400 3.860 12.204
39.410 4.190 16.608
39.420 4.960 11.920
39.430 4.010 20.229
39.440 4.210 23.646
39.450 3.750 13.432
39.460 3.950 25.248
39.470 4.120 27.636
39.480 4.040 15.744
39.490 3.820 7.326
39.500 3.740 9.896
39.510 3.910 25.151
39.520 3.770 4.447
39.530 4.540 16.473
39.540 3.730 6.205
39.550 3.840 13.829
39.560 3.930 12.142
39.570 4.060 27.624
39.580 4.360 25.192
39.590 4.530 16.062
39.600 4.460 12.874
39.610 4.830 32.833
39.620 4.440 20.608
39.630 4.630 9.205
39.640 4.330 21.190
39.660 4.690 34.808
39.670 4.910 14.456
39.730 4.630 19.488
39.740 4.830 15.947
39.750 4.450 38.181
39.760 4.230 41.480
39.800 4.970 18.530
39.810 4.470 18.440
39.820 4.060 24.462
39.830 3.930 7.961
39.840 4.200 22.172
39.850 3.930 14.526
39.860 4.120 13.317
39.870 4.170 26.184
39.880 4.110 14.532
39.890 4.210 17.320
39.900 3.850 10.228
39.910 4.450 27.633
39.920 4.890 41.035
39.950 4.450 12.809
39.960 4.130 25.809
39.970 4.340 32.818
39.990 4.180 18.896
40.050 4.300 26.165
40.070 4.690 16.358
40.080 4.440 17.565
40.090 4.390 31.488
40.100 4.560 24.718
40.110 4.370 26.678
40.120 4.700 15.392
40.130 4.860 13.037
40.140 4.790 13.875
40.160 4.720 15.992
40.170 4.550 25.073
40.180 4.780 41.234
40.190 4.410 22.234
40.200 4.450 13.394
40.210 4.560 15.375
40.220 4.420 28.707
40.230 4.090 26.265
40.250 4.540 28.708
40.260 4.570 32.783
40.280 4.260 12.775
40.290 3.960 32.940
40.300 4.170 21.543
40.310 4.210 11.104
40.320 4.070 11.236
40.330 4.010 18.562
40.340 3.630 29.129
40.350 3.930 11.793
40.360 3.820 17.549
40.370 3.900 16.583
40.380 4.140 29.639
40.390 4.210 28.926
40.400 3.990 32.745
40.410 4.670 40.718
40.480 4.600 41.391
40.500 4.880 35.608
40.510 4.580 20.425
40.520 4.120 33.670
40.530 4.130 32.340
40.540 4.510 11.093
40.550 4.330 13.408
40.560 4.570 38.096
40.590 4.890 27.287
40.610 4.530 40.473
43.810 4.550 14.519
43.830 4.860 29.790
43.840 4.740 19.122
43.870 4.820 14.531
45.110 3.980 44.767
45.160 3.920 38.768
45.210 4.320 40.890
45.230 4.590 34.602
45.310 4.570 42.281
45.320 4.410 44.489
45.360 4.460 38.012
45.550 4.690 43.411
45.570 4.230 29.928
45.580 4.520 38.568
45.610 4.760 41.237
45.630 4.370 44.649
45.640 4.260 40.049
45.670 4.110 40.899
45.760 4.100 39.949
45.780 3.870 41.014
45.790 4.550 38.330
45.800 4.230 42.196
45.850 4.980 42.120
45.870 4.720 36.956
45.880 4.490 32.729
45.910 4.770 34.400
45.920 4.970 19.690
46.010 4.460 44.278
46.120 4.290 37.332
46.160 4.170 36.242
46.260 4.810 38.109
46.350 3.970 34.261
46.460 4.320 36.711
46.520 4.410 43.410
46.570 4.200 39.253
46.750 4.600 40.234
46.800 4.100 25.345
46.850 3.910 43.936
46.860 4.550 42.878
46.900 4.300 36.258
46.930 3.940 34.557
46.950 4.460 31.381
46.960 4.210 38.488
46.970 4.910 43.349
46.980 4.500 41.713
47.100 4.000 43.071
47.110 4.200 33.788
47.130 3.890 43.581
47.150 4.400 44.405
47.170 4.250 42.607
47.210 3.920 39.277
50.530 4.240 38.270
50.540 4.750 41.146
50.550 4.830 36.577
50.590 4.890 23.734
50.620 4.960 18.046
50.700 4.930 8.395
50.710 4.470 23.568
50.720 4.360 13.215
50.730 4.460 24.369
50.760 4.930 2.861
50.780 4.560 2.645
50.800 4.770 14.728
50.820 4.390 31.294
50.840 4.010 14.824
50.850 4.610 33.353
50.860 4.470 36.339
53.570 4.450 31.421
53.590 4.980 23.692
53.620 4.340 11.048
53.630 4.490 11.896
53.640 4.770 27.359
53.650 4.390 34.236
53.670 4.960 32.736
53.700 4.690 9.161
53.720 4.520 13.103
53.730 4.640 38.531
53.770 4.470 27.352
53.800 4.740 31.691
53.810 4.120 38.934
53.820 4.610 19.130
53.840 4.090 28.308
53.860 4.460 32.539
53.870 4.110 21.040
53.900 4.820 9.564
53.930 4.790 21.276
53.940 4.490 30.374
53.950 4.010 38.492
54.000 4.410 12.024
54.020 4.610 16.220
54.030 4.340 35.977
54.040 3.980 41.999
54.050 4.410 27.758
54.060 4.440 33.715
54.070 4.170 23.675
54.090 4.740 26.948
54.100 4.690 16.901
54.110 4.740 11.749
54.200 4.450 42.567
54.260 4.610 43.436
54.420 4.900 25.135
54.440 4.370 42.762
54.450 4.730 41.310
54.460 4.750 38.985
54.540 3.920 42.044
54.580 3.860 43.726
54.830 4.520 14.267
54.840 4.040 33.908
54.850 4.490 31.218
54.870 4.270 27.635
54.880 3.940 26.719
54.890 4.530 34.669
54.920 4.340 17.609
54.940 4.930 13.823
54.950 4.740 25.450
55.000 4.080 34.181
55.010 4.550 27.491
55.020 4.910 20.670
55.040 4.500 30.238
55.060 4.810 17.192
55.070 4.830 38.771
55.080 3.910 43.376
55.090 4.410 19.822
55.100 4.870 22.322
55.130 4.830 42.199
55.140 4.880 5.222
55.150 4.810 32.338
55.160 4.780 26.040
55.200 4.140 35.326
55.280 4.960 13.105
55.290 4.550 41.790
55.300 4.950 32.131
55.350 4.620 31.542
55.390 4.290 29.882
55.620 4.590 36.405
55.630 4.420 28.139
55.650 3.990 26.691
56.260 4.140 13.458
56.270 4.440 41.880
56.290 4.400 29.521
56.300 3.790 23.638
56.320 4.110 15.097
56.330 4.070 15.108
56.340 4.150 14.564
56.360 4.220 22.203
56.370 4.560 23.204
56.380 4.420 19.573
56.410 3.880 30.186
56.420 3.940 6.361
56.430 4.140 18.635
56.450 4.410 33.080
56.460 3.780 20.181
56.470 3.910 29.444
56.480 4.210 33.257
56.490 4.570 40.779
56.640 4.490 8.716
59.910 4.410 35.271
59.920 4.790 35.131
59.970 4.570 41.283
59.990 4.800 21.485
60.000 4.440 31.845
60.060 4.560 16.742
60.070 4.300 33.397
60.080 4.440 8.629
60.090 4.270 35.687
60.160 4.920 17.063
60.180 4.910 22.832
60.190 4.960 44.219
60.200 4.110 40.077
60.220 4.160 35.427
60.270 4.150 38.334
60.280 4.550 36.521
60.300 4.640 9.326
67.360 4.800 2.797
67.370 4.360 20.306
67.380 4.480 9.957
67.390 4.880 23.710
67.400 4.450 22.592
67.410 4.080 34.769
67.430 4.140 43.526
67.450 4.850 10.180
67.470 4.290 18.717
67.480 4.290 21.907
67.510 4.820 32.975
67.520 4.490 35.878
67.530 4.220 36.546
67.550 4.250 40.875
67.570 4.080 20.743
67.590 4.090 36.719
67.620 4.050 38.936
67.630 4.410 42.855
67.640 4.710 42.758
67.660 4.330 34.796
67.700 4.040 12.506
67.710 3.980 18.235
67.750 4.050 26.823
67.760 3.840 6.384
67.770 4.200 32.794
67.780 4.050 41.309
67.790 4.020 40.893
67.800 4.030 40.673
67.840 4.140 42.357
67.880 4.110 42.409
67.900 4.210 35.066
67.910 4.010 15.533
67.920 4.370 30.441
67.930 4.810 22.220
67.940 4.330 8.868
67.950 4.980 42.369
68.000 4.800 22.854
68.010 4.490 36.202
68.020 4.650 19.540
68.070 4.710 25.148
68.080 4.950 33.805
68.090 4.580 25.302
68.100 4.570 16.493
68.110 4.600 12.417
68.220 4.600 38.236
68.230 4.460 27.958
68.240 4.340 21.923
68.250 4.730 26.329
68.260 4.550 20.008
68.270 4.470 16.099
68.280 4.670 32.643
68.290 4.300 30.593
68.370 4.840 31.557
68.390 4.440 31.273
68.400 4.850 44.586
68.420 4.640 14.429
68.440 4.850 37.417
68.490 4.890 31.345
68.500 4.450 39.352
68.510 4.850 27.388
68.750 4.770 33.513
68.760 4.850 20.969
68.770 4.590 15.323
68.780 4.680 30.048
68.810 4.270 36.984
68.830 4.570 16.077
68.840 4.310 23.385
68.850 4.590 12.764
68.860 4.780 22.220
68.880 4.780 26.367
68.900 4.360 41.322
68.910 4.290 36.323
68.920 4.510 27.617
68.940 4.680 40.543
68.950 4.430 27.651
68.960 3.920 16.690
68.970 4.330 4.857
69.000 4.750 30.425
69.010 4.280 31.638
69.020 4.730 42.118
69.090 4.880 24.181
69.100 4.350 27.764
69.120 4.130 17.854
69.130 4.540 39.968
69.140 4.240 27.306
69.150 4.350 37.208
69.160 4.920 4.368
69.170 4.700 31.924
69.180 4.310 17.894
69.190 4.760 35.607
69.200 4.350 26.865
69.290 4.300 35.014
69.300 4.770 21.102
69.310 4.790 34.775
69.380 4.560 32.699
69.390 4.930 32.009
69.400 4.280 14.783
69.490 4.710 4.776
69.500 4.820 36.086
69.690 4.700 25.864
69.700 4.950 14.011
72.130 4.310 37.182
72.140 4.420 35.437
72.150 4.380 25.594
72.160 4.960 35.592
72.170 4.280 37.983
72.180 4.460 41.653
72.190 4.340 25.738
72.200 4.420 8.015
72.210 4.060 34.215
72.220 4.100 40.547
72.240 4.560 33.796
72.260 4.290 41.060
72.270 4.680 38.528
72.280 4.880 24.398
72.290 4.420 9.892
72.300 4.490 21.352
72.310 4.810 15.051
72.320 4.340 24.958
72.330 4.790 31.911
72.340 4.520 24.239
72.380 4.860 34.684
72.390 4.700 10.879
72.400 4.880 20.047
72.410 4.150 20.189
72.430 4.810 17.117
72.440 4.610 23.968
72.460 4.710 37.681
72.470 4.250 10.370
72.480 4.420 16.740
72.490 4.580 18.481
72.500 4.510 32.403
72.510 4.210 43.135
72.520 4.470 16.036
72.530 4.210 12.011
72.540 4.440 10.512
72.550 4.460 32.690
72.560 4.260 30.432
72.580 4.320 23.258
72.590 4.290 3.643
72.600 4.200 15.974
72.620 4.310 37.478
72.640 4.020 42.011
72.650 4.180 26.606
72.660 4.130 30.875
72.690 4.330 44.181
72.710 4.310 9.047
72.720 4.160 25.297
72.730 4.160 11.959
72.750 4.030 22.890
72.760 4.810 44.436
72.770 4.450 21.064
72.780 4.450 42.675
103.270 4.760 43.791
103.420 4.260 43.162
103.430 4.350 14.903
103.440 4.650 34.105
103.540 4.340 43.055
103.580 4.120 35.619
103.590 4.150 31.531
103.600 3.990 32.123
103.610 4.480 27.977
103.620 3.990 37.022
103.630 3.920 29.607
103.640 4.420 32.216
103.650 3.920 40.669
103.660 4.130 32.665
103.670 3.590 20.322
103.680 4.130 37.825
103.710 4.050 37.992
103.720 4.200 35.769
103.730 4.880 19.943
103.740 4.560 44.737
103.780 4.680 41.592
103.800 4.980 21.889
103.840 4.310 24.112
103.860 4.050 32.909
103.880 4.630 40.436
103.950 4.240 27.039
103.970 4.400 41.321
103.990 4.480 30.196
104.400 4.570 33.272
104.410 3.890 17.601
104.420 3.880 35.357
104.430 4.880 37.886
104.450 4.240 44.636
104.510 4.600 19.534
104.520 4.100 41.013
104.530 4.240 34.484
104.560 4.560 24.795
104.580 4.030 30.577
104.600 4.380 39.411
104.650 4.600 31.736
104.680 4.720 44.888
104.690 4.990 26.817
104.750 4.480 43.183
104.770 4.440 40.043
104.780 4.640 33.344
104.800 4.450 34.008
104.820 4.930 44.127
104.850 4.200 39.996
104.870 3.750 24.297
104.880 4.100 23.482
104.920 4.360 41.590
104.930 4.090 23.455
104.950 4.390 42.428
105.050 4.580 41.989
105.090 4.080 40.920
105.110 4.210 40.498
105.130 4.380 36.439
105.150 4.510 31.684
105.160 4.440 16.662
105.170 4.120 38.694
105.240 4.160 39.451
105.270 3.810 29.884
105.290 4.250 24.512
105.310 4.540 29.289
105.320 4.300 24.863
105.330 4.480 35.455
105.370 4.080 43.906
105.400 4.380 34.785
105.410 4.570 39.013
105.830 4.110 15.794
105.840 4.290 43.921
105.850 4.540 34.102
105.860 4.800 11.802
105.870 4.590 25.215
105.880 4.230 22.977
105.890 4.130 34.006
105.920 4.810 38.289
105.970 4.680 16.795
105.980 4.620 29.412
106.010 4.070 36.887
106.020 4.530 27.801
106.050 4.880 27.948
106.060 4.330 36.331
106.080 4.280 28.238
106.160 4.550 28.762
106.170 4.130 35.736
106.200 4.040 17.151
106.210 4.560 42.268
106.230 4.800 36.612
106.250 4.190 37.588
106.260 4.210 25.537
106.270 4.580 36.392
106.280 4.010 33.999
106.300 4.790 40.113
106.310 4.130 41.436
106.320 4.420 24.665
106.330 4.280 30.648
106.340 3.970 33.602
106.350 4.920 34.648
106.360 4.520 38.138
106.370 4.550 29.285
106.390 4.010 44.006
106.400 4.190 34.016
106.410 4.050 34.583
106.420 4.350 43.645
106.430 4.180 41.772
106.450 3.840 36.355
106.470 3.880 36.733
106.480 4.170 43.930
106.780 4.460 41.493
106.810 4.580 39.467
106.830 4.300 38.585
106.860 4.300 30.537
106.870 4.070 42.178
106.880 4.110 44.890
106.920 4.890 14.192
106.930 4.390 37.780
106.950 4.580 38.674
107.020 4.720 22.101
107.040 4.950 22.209
107.050 4.220 28.360
107.070 4.430 37.486
107.080 4.290 31.062
107.090 4.150 14.462
107.110 4.470 37.943
107.120 3.980 19.762
107.130 4.380 14.237
107.140 4.240 9.824
107.150 4.070 8.350
107.170 4.610 13.608
107.180 4.030 30.317
107.230 4.200 28.731
107.240 4.690 16.935
107.360 4.460 23.012
107.370 4.570 34.545
107.380 4.370 27.650
107.390 4.570 26.966
107.400 4.630 37.069
107.410 4.830 35.514
107.430 4.480 25.842
107.470 4.740 21.580
107.480 4.480 36.411
107.490 4.080 36.206
107.500 4.870 14.249
107.510 4.220 28.337
107.520 4.400 9.374
107.530 4.280 37.371
107.550 4.550 28.975
107.560 4.460 44.264
107.570 4.820 23.422
107.580 4.840 41.524
107.590 4.600 16.485
107.600 4.450 24.729
107.610 4.590 16.067
107.620 4.420 36.810
107.640 4.330 32.066
107.650 4.140 26.041
107.660 4.550 28.108
107.670 4.420 33.309
108.050 4.620 26.325
108.060 4.770 16.041
108.070 4.580 31.032
108.090 4.280 37.658
108.100 3.860 18.526
108.110 4.220 39.626
108.120 4.250 32.401
108.130 4.070 33.227
108.140 4.550 43.602
108.150 4.000 26.505
108.160 4.230 34.438
108.200 4.700 37.795
108.210 4.390 19.080
108.290 4.600 39.381
108.330 4.880 37.847
108.340 4.660 26.372
108.350 3.770 25.051
108.370 4.220 25.604
108.690 3.910 36.076
108.700 4.130 32.200
108.710 3.670 32.216
108.740 4.310 35.056
108.750 4.200 40.538
108.760 4.910 33.961
108.780 3.800 30.990
108.820 4.820 40.732
108.830 4.510 40.130
108.850 3.730 25.869
108.870 4.280 21.697
108.910 4.900 43.965
108.920 3.650 20.863
108.960 4.140 44.735
109.000 4.040 26.651
109.010 4.120 24.372
109.020 4.770 36.629
109.080 4.460 38.580
112.740 4.090 35.454
112.780 4.650 41.115
112.790 4.630 37.467
112.810 4.590 27.619
112.910 4.360 41.745
113.040 4.310 44.653
113.050 4.180 33.022
113.080 4.090 42.079
113.090 4.240 42.665
113.110 4.650 34.262
113.130 4.490 40.621
113.140 4.490 39.497
113.160 4.530 21.555
113.170 4.220 35.531
113.180 4.200 42.507
113.190 4.240 41.482
113.200 4.360 28.165
113.210 4.030 39.608
113.240 4.410 38.652
113.260 4.150 20.080
113.270 3.890 37.769
113.280 4.310 38.238
113.320 4.440 40.401
113.330 4.380 42.538
113.350 4.260 41.071
113.360 4.600 44.167
113.430 4.560 36.533
113.440 4.050 26.111
113.450 3.910 27.682
113.460 3.980 25.366
113.480 4.810 32.208
113.490 4.290 36.821
113.500 4.190 40.011
113.510 4.380 39.059
113.530 4.540 18.864
113.570 4.220 31.413
113.580 3.920 31.284
113.600 4.960 39.503
113.630 3.840 23.854
113.760 4.300 30.392
114.130 4.550 38.709
114.160 4.490 38.755
114.170 4.290 37.479
114.200 4.950 44.548
114.210 4.040 38.857
114.240 4.270 36.759
114.250 4.530 40.201
114.260 4.890 41.145
114.280 4.650 40.944
114.290 4.010 35.404
114.310 4.130 40.272
114.320 4.410 28.803
114.330 3.970 36.331
114.340 4.130 41.106
114.360 4.100 41.321
114.370 4.220 24.420
114.390 4.440 38.365
114.400 4.320 37.763
114.450 4.150 38.135
114.460 4.500 41.148
114.490 4.230 42.873
114.520 4.180 44.854
114.550 4.460 40.567
114.560 4.410 42.685
114.570 4.280 39.736
114.580 4.080 43.298
114.590 4.150 33.575
114.600 4.100 33.080
114.610 4.350 17.954
114.630 4.440 21.863
114.640 4.400 22.283
114.650 4.470 37.887
114.660 4.810 23.997
114.670 4.180 43.790
114.700 4.710 38.966
114.720 4.270 26.466
114.730 4.360 35.005
114.800 4.320 22.605
114.820 4.520 34.067
114.830 4.130 44.702
114.840 4.710 36.807
114.950 4.150 44.699
114.980 4.330 42.770
115.050 4.100 43.734
115.070 4.180 32.161
115.080 4.450 18.910
115.090 4.510 44.017
115.100 3.800 39.960
115.110 4.180 39.515
115.130 4.110 26.250
115.170 4.140 41.142
115.230 3.710 22.848
115.240 4.670 27.217
119.140 4.900 44.394
119.420 4.560 23.833
