# time(ns) distance (A) angle (deg)
4.580 3.460 80.089
4.790 3.480 79.099
4.800 3.550 84.306
4.810 3.400 87.853
4.870 3.570 85.594
4.940 3.340 88.889
5.730 3.360 84.990
7.710 3.440 83.601
8.620 3.470 84.598
9.030 3.480 84.600
9.340 5.870 76.324
9.360 5.650 83.298
9.630 5.260 73.506
9.670 5.990 84.158
9.690 5.390 89.521
9.700 4.820 83.525
9.930 5.890 80.047
10.250 5.670 89.890
10.410 4.370 89.989
10.450 5.120 49.568
10.460 5.010 53.964
10.470 5.720 47.538
11.050 5.970 76.695
11.100 4.220 81.359
11.120 5.290 76.917
11.170 5.730 76.572
11.270 5.290 55.361
11.280 6.000 81.974
11.290 4.560 57.497
11.300 5.370 57.581
11.310 5.770 52.262
11.330 5.890 88.572
11.410 5.900 74.444
11.450 5.870 54.856
11.610 5.440 85.649
11.620 5.000 87.678
11.630 4.810 78.957
11.680 5.330 83.016
11.720 5.750 56.421
11.790 5.750 72.580
11.890 5.760 70.817
11.910 4.840 80.180
11.930 5.220 89.507
11.940 5.860 76.782
11.960 4.910 88.720
18.580 5.400 81.906
18.700 5.010 75.586
18.710 4.520 84.196
18.750 5.230 84.699
18.760 4.880 78.914
18.890 3.830 68.290
19.010 4.220 37.437
19.020 4.280 76.025
19.050 4.380 85.401
19.070 4.500 78.536
19.140 4.870 81.896
19.170 5.160 76.740
19.220 5.130 63.669
19.260 4.390 40.301
19.580 4.420 47.394
19.600 5.210 75.316
19.620 5.420 84.934
19.630 4.710 69.496
19.700 4.950 84.007
19.820 5.480 83.643
20.000 4.920 88.020
20.010 4.960 83.868
20.020 5.710 75.195
20.040 4.500 87.528
20.050 5.250 79.015
20.190 5.360 45.343
20.220 4.000 82.486
20.230 4.180 40.775
20.240 4.300 53.213
20.250 3.960 27.483
20.260 3.900 32.534
20.270 4.560 55.619
20.280 3.660 14.337
20.290 3.780 11.827
20.300 4.030 27.415
20.310 3.550 20.173
20.320 3.640 23.872
20.330 4.320 20.285
20.340 3.800 14.810
20.350 3.760 20.029
20.360 3.730 34.863
20.370 3.810 14.386
20.380 3.820 14.431
20.390 3.860 12.588
20.400 4.630 33.975
20.410 3.860 26.385
20.420 3.870 33.168
20.430 4.010 86.145
20.440 3.830 38.560
20.450 4.170 45.587
20.460 3.910 8.552
20.470 3.910 19.419
20.480 4.160 33.421
20.490 4.100 34.562
20.500 4.440 45.633
20.510 4.930 84.641
20.520 5.130 52.799
20.530 5.460 89.069
20.540 4.050 51.875
20.550 4.030 75.203
20.580 5.290 66.575
20.610 5.020 84.199
20.620 4.890 84.544
20.630 3.960 76.098
20.640 4.650 67.831
20.650 4.410 62.495
20.660 5.060 61.609
20.670 4.840 81.186
20.680 4.880 87.591
20.750 3.680 81.713
20.760 3.950 87.631
20.810 4.250 82.365
20.820 4.850 70.935
20.830 4.650 58.575
20.840 4.790 73.435
20.850 5.090 78.610
20.860 5.030 89.118
20.880 4.320 79.151
20.900 4.190 83.670
20.920 5.030 88.124
20.970 4.180 87.383
20.990 4.870 83.348
21.010 3.880 69.514
21.030 4.910 41.457
21.040 5.260 55.960
21.050 5.470 76.777
21.060 5.230 82.879
21.070 4.860 63.276
21.080 5.370 88.151
21.090 4.440 74.887
21.130 4.390 89.330
21.200 4.460 84.049
58.730 5.640 78.498
58.740 5.620 86.574
58.760 5.630 81.955
58.770 5.240 83.721
58.780 5.530 85.376
58.790 4.890 72.512
58.800 5.680 63.877
58.810 5.350 72.813
58.820 5.360 79.277
58.830 5.390 81.385
58.840 5.490 53.328
58.850 5.780 85.377
58.860 5.470 64.336
58.870 5.760 69.292
58.880 4.600 81.977
58.890 5.250 75.125
58.900 5.430 78.028
58.910 5.460 66.176
58.930 5.450 71.622
58.940 5.390 72.659
58.950 5.410 76.423
58.970 5.590 69.676
58.980 5.570 84.057
58.990 5.660 70.840
59.010 5.320 83.946
59.040 5.590 83.564
59.050 5.410 87.707
59.070 5.320 89.255
59.090 4.720 88.503
59.100 5.150 78.600
59.110 5.340 84.143
59.140 5.060 86.995
59.180 4.510 84.341
59.200 4.230 80.531
59.380 4.860 74.678
59.440 5.290 81.040
59.480 5.420 67.568
59.500 5.110 77.245
59.510 5.260 73.910
59.520 5.430 89.231
59.530 5.020 79.555
59.540 4.560 80.375
59.560 4.740 77.511
59.570 5.290 56.399
59.580 5.420 88.693
59.600 5.120 72.413
59.650 5.400 87.391
59.740 5.260 61.327
59.760 5.240 65.706
59.770 4.910 86.550
59.780 4.900 83.027
59.820 4.790 87.697
59.830 4.560 89.032
59.890 5.340 82.745
59.900 4.490 86.978
59.910 5.160 80.784
59.920 4.670 75.590
59.930 4.780 79.750
59.940 4.740 67.424
59.950 4.610 84.552
60.070 4.160 89.558
60.080 4.420 79.562
60.160 3.960 84.239
60.180 4.330 80.272
60.210 4.400 79.006
60.230 5.030 79.884
60.280 4.680 86.084
60.320 5.620 82.343
60.390 5.350 81.279
60.420 5.820 74.820
60.580 5.790 82.736
60.600 5.470 85.846
60.610 4.640 63.613
60.640 5.230 82.059
60.650 5.480 82.203
60.660 4.680 70.785
60.670 5.670 72.410
60.680 5.700 62.183
60.690 5.170 81.129
60.700 4.440 77.330
60.710 5.320 69.592
60.720 5.180 77.138
60.730 5.190 74.495
60.740 4.930 70.099
60.760 4.360 87.574
60.770 5.220 77.250
60.780 5.070 75.295
60.790 5.170 79.462
60.800 5.190 77.080
60.810 5.630 81.347
60.820 4.850 78.853
60.830 5.370 67.657
60.840 5.660 66.049
60.850 4.930 77.252
60.860 5.580 61.447
60.870 5.810 52.035
60.880 5.150 83.747
60.890 4.560 79.823
60.900 5.090 76.526
60.910 5.510 75.844
60.920 4.850 62.493
60.930 5.140 78.135
60.940 5.240 71.121
60.950 5.830 70.071
60.960 5.410 72.139
60.970 5.600 66.718
60.980 5.260 77.104
60.990 5.170 58.406
61.000 5.640 64.809
61.010 5.940 80.378
61.020 5.390 67.487
61.030 5.170 82.502
61.050 5.440 67.708
61.070 5.160 76.469
61.080 5.450 76.053
61.090 5.440 86.555
61.100 4.950 78.403
61.110 5.600 79.788
61.120 5.280 71.892
61.130 4.790 79.488
61.140 5.300 81.477
61.150 5.500 61.940
61.160 5.890 79.376
61.170 5.860 88.259
61.180 5.150 65.532
61.190 4.980 71.176
61.200 5.100 76.289
61.220 5.640 66.130
61.230 5.740 70.370
61.430 5.860 79.793
61.440 5.280 73.365
61.460 5.660 88.424
61.510 5.890 49.314
61.530 5.170 68.167
61.540 4.140 81.281
61.550 4.870 84.858
61.560 4.330 77.701
61.570 4.750 76.438
61.580 4.500 80.625
61.590 4.880 85.720
61.600 4.990 89.736
61.610 5.160 85.671
61.620 5.660 87.221
61.630 5.990 60.225
61.640 5.040 80.276
61.650 4.650 76.854
61.660 4.810 78.200
61.670 4.820 85.733
61.680 5.090 77.615
61.690 4.940 77.987
61.700 4.720 81.569
61.720 4.860 74.855
61.730 5.270 85.829
61.740 4.950 88.351
61.750 4.410 77.869
61.760 4.710 72.194
61.770 4.970 83.747
61.780 4.960 83.117
61.790 5.680 71.876
61.800 4.930 64.021
61.810 5.720 70.030
61.820 5.590 74.322
61.830 5.490 66.574
61.840 5.080 75.007
61.860 5.850 79.414
61.870 5.650 72.183
61.890 5.880 62.230
61.900 5.780 66.590
61.910 5.890 57.348
61.920 5.340 65.765
61.930 5.560 59.592
61.940 5.590 86.953
61.950 4.880 85.721
61.960 5.150 64.241
61.980 5.700 60.143
61.990 5.920 76.682
62.000 5.450 77.508
62.010 5.650 87.005
62.040 5.140 78.130
62.050 5.060 76.281
62.080 5.310 76.200
62.090 5.420 79.756
62.100 5.610 61.510
62.110 5.780 79.815
62.120 5.040 77.542
62.130 5.240 84.502
62.140 5.060 76.982
62.150 5.010 80.621
62.160 4.760 78.407
62.170 5.010 73.613
62.180 4.720 85.604
62.200 4.730 85.641
62.210 4.300 89.542
62.220 4.620 89.766
62.230 5.190 75.022
62.240 5.180 75.019
62.260 5.740 73.492
62.270 5.180 89.196
62.280 4.650 83.226
62.290 4.910 76.246
62.300 5.470 72.844
62.310 5.320 84.643
62.320 4.870 87.341
62.330 4.650 80.406
62.340 4.970 78.758
62.350 5.080 82.654
62.360 5.580 65.320
62.370 5.770 71.230
62.380 5.560 61.435
62.390 4.640 83.671
62.400 4.490 85.823
62.420 4.680 70.525
62.430 4.780 67.941
62.440 4.750 79.274
62.450 4.990 74.812
62.460 5.100 74.846
62.470 4.880 79.001
62.500 4.090 87.253
62.510 4.160 77.010
62.530 5.010 80.260
62.540 5.280 83.439
62.550 4.930 89.933
62.560 5.050 75.181
62.580 5.470 71.835
62.600 5.270 83.197
62.610 5.140 77.818
62.620 4.910 76.284
62.640 4.820 86.719
62.650 5.270 86.240
62.660 5.280 75.404
62.670 5.200 68.881
62.680 5.030 83.810
62.690 4.500 82.907
62.710 4.880 84.303
62.720 5.100 74.217
62.730 4.960 78.636
62.770 4.880 86.855
62.780 5.180 84.396
62.790 5.170 78.999
62.800 4.760 85.033
62.830 5.060 74.565
62.850 5.140 75.433
62.860 5.180 71.778
62.880 4.440 78.704
62.890 4.640 88.734
62.910 4.280 89.864
62.920 5.380 87.031
62.940 5.600 76.757
62.950 5.450 80.977
62.960 5.140 81.201
62.970 4.470 80.462
62.980 4.920 84.170
62.990 5.820 64.491
63.000 5.200 88.231
63.010 5.220 75.558
63.020 5.660 51.775
63.030 5.680 75.388
63.040 5.720 70.813
63.050 5.570 87.576
63.180 5.610 87.575
63.190 5.030 80.893
63.200 5.220 88.115
63.240 5.420 78.317
63.250 5.820 83.713
63.270 5.640 81.504
63.280 5.320 78.317
63.300 5.560 89.665
63.310 5.730 81.067
63.320 5.280 78.045
63.330 5.680 83.702
63.340 5.340 82.723
63.450 5.290 87.999
63.520 5.410 89.548
63.530 4.910 79.654
63.540 4.260 82.312
63.550 4.790 88.470
63.570 4.430 84.817
63.580 4.550 82.504
63.590 4.250 82.352
63.600 4.190 88.629
63.610 4.070 89.615
63.620 4.460 79.143
63.640 4.910 83.341
63.660 5.360 86.222
63.670 5.180 59.900
63.680 5.360 81.652
63.690 4.760 85.118
63.710 5.830 88.298
63.720 5.510 89.275
63.730 5.190 88.531
63.740 5.980 79.397
63.750 4.220 72.938
63.770 5.300 76.245
63.790 5.100 84.577
63.800 5.430 80.608
63.810 5.670 75.854
63.820 5.560 87.806
63.830 5.530 84.639
63.850 5.310 74.489
63.890 4.880 83.457
63.910 5.060 79.414
63.920 4.510 80.412
63.940 5.540 59.361
63.950 5.510 72.184
63.960 5.510 75.126
64.000 5.000 88.120
64.010 5.700 72.736
64.050 4.900 78.580
64.080 4.580 83.283
64.090 4.660 85.083
64.100 4.840 78.802
64.110 4.860 89.665
64.120 4.750 89.413
64.140 4.570 72.186
64.150 4.930 83.261
64.160 4.880 85.789
64.170 4.970 86.567
64.180 4.430 78.995
64.190 4.670 73.872
64.200 4.830 72.974
64.220 5.190 73.497
64.230 4.810 73.828
64.240 4.320 81.003
64.250 4.500 87.773
64.260 4.560 87.381
64.270 4.590 81.978
64.280 4.040 85.661
64.300 4.600 82.167
64.310 4.320 68.675
64.330 5.770 64.143
64.340 4.720 75.296
64.380 4.340 85.639
64.390 4.350 85.617
64.400 4.600 74.049
64.410 4.720 74.567
64.430 3.990 86.835
64.460 4.660 72.895
64.470 4.610 83.807
64.480 4.320 83.520
64.490 4.800 86.389
64.500 4.460 89.994
64.550 4.550 89.381
64.580 4.970 76.308
64.600 5.280 80.532
64.660 4.810 85.519
64.670 5.140 74.420
64.690 4.840 86.586
64.730 4.380 84.879
64.760 5.170 88.117
64.780 4.670 75.647
64.830 5.320 75.189
64.840 5.350 86.450
64.850 5.530 83.170
64.860 5.920 88.632
64.870 5.670 78.031
64.880 5.310 79.565
64.890 5.440 75.125
64.900 4.920 86.074
64.910 5.380 82.041
64.920 4.740 85.126
64.940 4.180 88.713
64.950 4.470 83.777
64.970 4.510 83.274
64.980 4.180 89.826
65.000 4.920 84.554
65.010 4.940 77.651
65.020 5.350 75.499
65.030 5.230 71.417
65.040 5.230 81.706
65.050 4.890 67.300
65.080 4.790 84.279
65.090 4.680 85.834
65.110 5.460 75.098
65.150 5.530 86.995
65.230 4.920 88.286
65.240 4.370 86.470
65.260 5.790 89.759
65.270 5.750 89.165
65.280 5.760 71.068
65.290 5.450 57.745
65.300 5.480 87.936
65.310 5.890 58.707
65.330 5.010 83.858
65.340 5.290 71.033
65.350 5.350 57.386
65.360 5.610 76.676
65.370 4.780 83.745
65.390 4.650 82.010
65.400 4.890 71.482
65.410 4.590 81.620
65.420 5.440 76.110
65.430 5.180 67.178
65.440 4.580 84.996
65.450 5.410 63.154
65.460 5.320 60.680
65.470 5.380 71.317
65.480 5.820 68.504
65.490 5.210 78.533
65.500 5.260 86.347
65.510 5.440 85.319
65.520 5.170 72.702
65.530 5.460 85.489
65.580 5.940 66.432
65.590 5.300 80.831
65.600 4.940 80.941
65.630 5.120 64.846
65.640 5.460 73.971
65.650 5.250 87.199
65.800 4.760 78.051
65.830 5.780 82.543
65.840 5.400 52.772
65.860 5.610 84.477
65.870 5.500 75.158
65.880 4.720 88.309
65.890 4.560 77.620
65.910 5.270 80.031
65.920 4.730 81.617
65.990 5.690 70.268
66.000 5.910 75.771
66.010 5.220 74.010
66.040 5.150 65.772
66.050 4.880 83.357
66.320 4.770 75.879
66.330 5.170 89.017
66.350 4.570 85.756
66.450 4.980 79.826
66.600 5.380 79.500
66.610 5.440 86.436
66.620 5.430 81.389
66.950 5.970 69.622
66.980 5.930 75.271
67.050 5.850 84.593
67.060 5.880 88.582
67.090 5.340 83.360
67.100 5.690 77.332
67.120 5.310 82.903
67.180 5.060 89.876
67.190 4.300 88.297
67.280 4.760 83.532
67.330 5.330 76.978
67.400 5.960 82.109
67.430 5.810 78.121
67.500 5.990 86.968
67.660 5.190 83.872
67.670 5.900 81.841
67.700 5.430 78.015
67.740 5.530 88.768
67.760 5.020 66.434
67.770 4.720 82.421
67.790 5.160 80.347
67.800 5.830 61.475
67.810 5.940 61.204
67.820 5.540 79.381
67.830 5.510 82.353
67.840 5.430 76.853
67.860 5.040 86.559
67.870 4.740 71.855
67.880 5.280 81.304
67.890 5.340 81.394
67.900 5.450 74.823
67.920 5.860 63.034
67.930 4.480 73.761
67.940 5.010 83.772
67.950 5.730 61.314
67.960 4.640 85.377
67.970 4.800 68.312
67.980 4.870 77.515
67.990 5.370 67.477
68.000 5.450 71.988
68.010 5.410 64.222
68.020 4.990 82.162
68.030 5.070 60.587
68.040 5.540 72.859
68.050 5.170 74.219
68.060 5.810 75.046
68.070 5.670 69.257
68.160 5.520 86.070
68.170 5.350 81.224
68.240 5.600 85.186
68.260 5.360 51.480
68.270 5.320 75.826
68.310 4.620 78.212
68.320 5.100 67.856
68.330 5.470 62.890
68.340 4.960 84.935
68.350 4.830 89.752
68.360 5.380 66.852
68.370 4.660 74.781
68.380 4.940 88.077
68.390 5.170 79.516
68.400 5.220 61.360
68.410 5.950 55.847
68.420 4.940 73.540
68.430 4.750 73.317
68.440 5.810 64.892
68.450 5.690 66.989
68.460 5.180 72.420
68.470 5.030 70.526
68.480 4.860 76.395
68.490 5.020 85.971
68.510 5.080 66.482
68.520 4.980 82.212
68.530 5.720 75.375
68.540 5.360 82.514
68.550 5.690 67.340
68.570 5.630 69.553
68.580 5.610 81.043
68.590 5.680 79.343
68.600 5.740 73.676
68.610 5.340 72.472
68.620 5.160 62.949
68.630 5.310 71.927
68.640 5.170 65.994
68.650 5.200 86.959
68.670 5.480 76.191
68.690 5.080 68.926
68.700 4.640 77.544
68.710 5.450 77.913
68.720 5.880 87.079
68.730 5.630 84.292
68.740 5.730 80.634
74.850 5.210 86.056
74.860 5.170 74.764
74.870 4.750 79.841
74.880 5.270 66.634
74.890 5.000 80.890
74.900 4.860 66.391
74.910 5.080 70.795
74.930 4.380 80.294
74.960 4.780 76.509
74.970 4.560 75.220
74.980 4.610 80.752
74.990 5.640 70.878
75.000 4.970 72.801
75.010 5.030 74.178
75.020 5.250 72.634
75.030 4.770 89.598
75.040 4.670 74.602
75.050 4.290 87.801
75.060 4.600 87.486
75.070 4.360 87.533
75.090 4.180 81.152
75.100 4.430 76.575
75.110 4.610 70.625
75.120 5.150 58.318
75.130 5.270 69.165
75.140 4.740 70.603
75.150 4.720 89.680
75.160 4.720 80.302
75.170 4.360 80.395
75.180 4.590 79.233
75.190 5.360 58.436
75.200 5.170 69.447
75.210 5.670 65.472
75.220 4.260 86.136
75.230 4.080 86.551
75.240 4.200 87.426
75.250 4.770 84.824
75.260 4.330 80.626
75.270 4.500 72.715
75.280 4.280 87.655
75.290 4.640 82.238
75.300 5.170 64.132
75.310 5.000 77.184
75.320 4.600 83.017
75.330 4.440 76.851
75.340 4.920 83.544
75.350 4.520 81.704
75.360 5.090 66.149
75.380 4.220 80.678
75.390 4.890 70.824
75.400 4.530 74.699
75.410 4.430 79.166
75.420 4.360 75.376
75.440 4.180 86.916
75.460 4.440 80.045
75.470 4.070 85.917
75.480 5.440 72.064
75.490 5.380 77.915
75.500 5.010 76.169
75.510 5.540 73.978
75.520 4.610 86.177
75.530 5.310 74.111
75.540 4.830 82.556
75.550 5.160 77.955
75.560 4.850 74.350
75.570 4.620 84.194
75.580 4.570 80.266
75.590 5.060 76.589
75.600 4.650 83.586
75.610 4.420 74.537
75.620 5.050 69.661
75.630 4.600 84.197
75.640 5.040 70.466
75.650 4.310 81.415
75.660 4.810 82.598
75.670 4.670 73.102
75.690 5.300 86.283
75.700 5.100 77.814
75.720 4.620 89.681
75.730 4.790 80.550
75.740 5.520 78.643
75.750 5.150 88.011
75.760 5.130 84.250
75.770 4.460 85.731
75.780 4.900 88.929
75.790 5.070 85.414
75.800 5.090 64.560
75.810 4.680 71.588
75.830 5.030 72.874
75.840 4.550 81.810
75.860 4.700 82.603
75.880 4.640 82.154
75.890 4.900 88.294
75.900 4.660 71.267
75.910 4.530 77.715
75.920 4.440 78.933
75.940 5.200 76.181
75.950 4.380 84.701
75.960 4.660 80.023
75.970 4.480 76.393
75.990 4.310 88.630
76.000 4.820 69.984
76.010 5.010 84.088
76.020 4.760 83.763
76.030 4.260 77.288
76.040 4.690 86.605
76.050 4.490 76.259
76.060 4.600 83.314
76.080 5.210 87.766
76.090 4.810 69.934
76.100 4.440 88.509
76.120 4.530 68.159
76.130 4.500 71.751
76.140 4.600 86.123
76.150 4.140 87.625
76.160 5.330 66.051
76.170 4.530 82.323
76.180 4.700 68.905
76.190 4.720 80.651
76.210 4.670 75.845
76.220 4.920 87.138
76.230 4.830 72.835
76.240 4.390 80.574
76.250 4.080 84.944
76.260 4.350 73.459
76.270 4.690 78.919
76.290 4.700 82.354
76.300 4.670 82.234
76.310 4.660 77.995
76.320 5.100 89.884
76.330 4.420 77.494
76.340 4.420 78.663
76.350 4.360 80.204
76.360 4.800 81.540
76.370 4.520 73.436
76.380 4.510 86.310
76.390 4.470 84.924
76.400 4.250 83.702
76.410 4.780 86.560
76.420 5.020 65.784
76.430 4.160 82.400
76.440 4.240 88.119
76.450 5.550 71.390
76.460 5.150 79.357
76.470 4.670 81.954
76.480 4.520 85.837
76.490 5.030 74.485
76.500 5.250 65.349
76.510 4.580 83.670
76.520 4.740 79.148
76.530 4.930 83.489
76.550 5.280 60.953
76.560 4.670 75.649
76.570 5.750 69.089
76.580 5.240 75.908
76.590 5.150 68.916
76.600 4.940 80.012
76.610 5.640 66.601
76.620 4.990 78.656
76.630 4.750 66.751
76.640 5.040 89.363
76.650 5.210 60.353
76.660 5.340 72.704
76.670 5.640 78.231
76.690 4.450 74.244
76.700 5.630 61.639
76.710 5.650 65.950
76.720 4.970 70.213
76.740 4.650 88.683
76.750 5.660 86.759
76.760 5.460 57.892
76.770 5.140 68.604
76.780 4.930 84.243
76.790 5.190 80.022
76.800 4.560 83.124
76.820 5.140 83.630
76.830 5.260 74.359
76.870 5.080 83.890
76.880 4.780 76.304
76.900 5.180 88.191
76.910 5.270 85.033
76.920 4.860 77.598
76.930 5.410 59.086
76.950 5.140 85.443
76.960 4.960 82.585
76.970 4.600 88.080
76.980 5.790 79.651
76.990 5.000 72.565
77.000 5.230 78.005
77.010 5.000 77.959
77.020 4.550 77.888
77.050 4.950 80.489
77.060 5.140 83.151
77.070 4.860 81.330
77.080 4.460 86.238
77.130 4.790 85.459
77.140 4.450 89.532
77.160 4.610 88.320
77.170 5.360 72.528
77.180 5.150 88.627
77.190 4.380 68.678
77.200 4.710 78.867
77.220 4.500 72.845
77.230 4.660 83.126
77.240 4.070 80.406
77.250 5.110 87.236
77.260 4.710 83.122
77.280 4.750 86.609
77.290 4.450 82.515
77.300 4.150 87.705
77.310 4.670 85.305
77.320 4.340 81.007
77.330 3.810 89.208
77.340 4.300 85.950
77.350 4.620 79.571
77.380 4.960 74.266
77.390 5.690 68.722
77.400 5.120 86.949
77.410 5.400 89.120
77.440 4.340 84.490
77.450 4.960 87.958
77.460 4.370 86.900
77.470 4.290 84.826
77.480 4.880 65.642
77.500 5.260 75.896
77.510 5.210 67.094
77.520 5.320 82.650
77.530 5.430 81.366
77.540 5.030 77.487
77.550 5.470 80.081
77.560 5.760 63.631
77.570 5.010 71.695
77.580 4.850 74.790
77.590 5.100 81.382
77.600 5.690 66.816
77.610 4.750 71.948
77.620 5.280 69.439
77.630 4.830 80.553
77.640 5.150 62.171
77.650 5.600 70.715
77.660 5.060 69.416
77.680 5.170 82.473
77.690 4.780 78.544
77.700 5.400 65.010
77.710 4.880 70.155
77.720 5.580 70.468
77.730 5.140 74.582
77.740 5.400 69.135
77.750 5.320 78.193
77.760 4.960 77.434
77.770 5.080 67.963
77.780 5.590 59.836
77.790 5.640 76.034
77.800 4.910 64.369
77.810 5.530 66.728
77.820 4.670 74.736
77.830 4.820 85.028
77.860 5.940 55.233
77.880 5.700 59.352
77.890 5.530 69.179
77.900 5.650 66.786
77.910 4.840 70.295
77.920 5.140 74.818
77.930 4.910 74.165
77.940 4.790 87.279
77.950 4.960 75.304
77.970 4.790 71.031
77.980 4.520 79.712
77.990 5.060 72.854
78.000 5.100 71.663
78.010 5.100 78.237
78.020 5.930 67.234
78.030 5.160 72.463
78.040 5.730 72.148
78.050 5.550 77.632
78.070 5.350 68.748
78.080 5.230 66.915
78.090 5.760 59.665
78.100 4.950 69.887
78.120 5.370 66.063
78.130 5.340 73.923
78.140 5.190 71.980
78.150 4.830 68.346
78.160 4.700 83.700
78.170 5.500 70.507
78.180 4.850 67.876
78.190 5.290 64.967
78.200 4.280 80.726
78.210 4.340 81.767
78.220 4.970 67.520
78.230 5.500 67.444
78.240 5.180 70.885
78.250 4.770 70.935
78.260 4.940 78.423
78.270 5.430 64.677
78.280 5.260 73.261
78.290 5.450 76.875
78.300 4.190 80.082
78.310 4.820 69.506
78.320 5.030 70.225
78.330 4.990 75.956
78.340 5.090 75.304
78.350 4.910 60.886
78.360 4.700 71.593
78.370 5.000 64.961
78.400 4.350 88.774
78.410 4.620 79.484
78.420 4.350 79.746
78.430 4.510 84.313
78.440 4.910 80.075
78.450 5.380 65.646
78.460 4.810 79.857
78.470 5.660 47.642
78.480 4.440 77.333
78.490 4.920 75.511
78.500 4.340 80.858
78.510 4.350 76.493
78.520 4.200 78.459
78.530 5.000 75.993
78.540 4.400 81.909
78.550 4.850 70.211
78.560 4.620 73.790
78.570 4.150 85.882
78.590 4.110 71.733
78.600 4.310 78.281
78.610 4.480 83.619
78.620 4.590 77.405
78.630 4.980 72.634
78.640 4.780 74.608
78.650 4.900 73.503
78.660 4.860 70.113
78.670 4.900 72.801
78.680 4.370 75.367
78.690 4.380 87.154
78.700 4.980 70.278
78.710 3.880 87.249
78.720 4.350 82.275
78.730 3.890 85.090
78.740 5.320 72.815
78.750 5.250 77.160
78.760 4.480 75.093
